# E (eV)   ldos(E)   pdos(E)   
-17.719000 0.000000 0.000000
-17.709000 0.969000 0.969000
-17.699000 1.922000 1.922000
-17.689000 1.057000 1.057000
-17.679000 1.127000 1.127000
-17.669000 1.200000 1.200000
-17.659000 1.270000 1.270000
-17.649000 1.186000 1.186000
-17.639000 1.087000 1.087000
-17.629000 1.087000 1.087000
-17.619000 1.105000 1.105000
-17.609000 1.123000 1.123000
-17.599000 1.141000 1.141000
-17.589000 1.164000 1.164000
-17.579000 1.182000 1.182000
-17.569000 1.088000 1.088000
-17.559000 1.075000 1.075000
-17.549000 1.067000 1.067000
-17.539000 1.054000 1.054000
-17.529000 1.059000 1.059000
-17.519000 1.064000 1.064000
-17.509000 1.071000 1.071000
-17.499000 1.079000 1.079000
-17.489000 1.084000 1.084000
-17.479000 1.091000 1.091000
-17.469000 1.065000 1.065000
-17.459000 1.031000 1.031000
-17.449000 1.021000 1.021000
-17.439000 1.018000 1.018000
-17.429000 1.015000 1.015000
-17.419000 1.015000 1.015000
-17.409000 1.012000 1.012000
-17.399000 1.009000 1.009000
-17.389000 1.009000 1.009000
-17.379000 1.014000 1.014000
-17.369000 1.019000 1.019000
-17.359000 1.019000 1.019000
-17.349000 1.021000 1.021000
-17.339000 1.023000 1.023000
-17.329000 0.992000 0.992000
-17.319000 0.984000 0.984000
-17.309000 0.976000 0.976000
-17.299000 0.971000 0.971000
-17.289000 0.971000 0.971000
-17.279000 0.968000 0.968000
-17.269000 0.967000 0.967000
-17.259000 0.967000 0.967000
-17.249000 0.967000 0.967000
-17.239000 0.967000 0.967000
-17.229000 0.969000 0.969000
-17.219000 0.969000 0.969000
-17.209000 0.971000 0.971000
-17.199000 0.971000 0.971000
-17.189000 0.973000 0.973000
-17.179000 0.968000 0.968000
-17.169000 0.955000 0.955000
-17.159000 0.949000 0.949000
-17.149000 0.949000 0.949000
-17.139000 0.949000 0.949000
-17.129000 0.946000 0.946000
-17.119000 0.943000 0.943000
-17.109000 0.943000 0.943000
-17.099000 0.945000 0.945000
-17.089000 0.947000 0.947000
-17.079000 0.950000 0.950000
-17.069000 0.952000 0.952000
-17.059000 0.957000 0.957000
-17.049000 0.957000 0.957000
-17.039000 0.959000 0.959000
-17.029000 0.959000 0.959000
-17.019000 0.961000 0.961000
-17.009000 0.966000 0.966000
-16.999000 0.963000 0.963000
-16.989000 0.963000 0.963000
-16.979000 0.965000 0.965000
-16.969000 0.967000 0.967000
-16.959000 0.972000 0.972000
-16.949000 0.977000 0.977000
-16.939000 0.984000 0.984000
-16.929000 0.989000 0.989000
-16.919000 0.994000 0.994000
-16.909000 1.006000 1.006000
-16.899000 1.016000 1.016000
-16.889000 1.028000 1.028000
-16.879000 1.043000 1.043000
-16.869000 1.058000 1.058000
-16.859000 1.070000 1.070000
-16.849000 1.080000 1.080000
-16.839000 1.092000 1.092000
-16.829000 1.125000 1.125000
-16.819000 1.160000 1.160000
-16.809000 1.190000 1.190000
-16.799000 1.217000 1.217000
-16.789000 1.265000 1.265000
-16.779000 1.313000 1.313000
-16.769000 1.424000 1.424000
-16.759000 1.547000 1.547000
-16.749000 2.598000 2.598000
-16.739000 1.265000 1.265000
-16.729000 1.179000 1.179000
-16.719000 1.090000 1.090000
-16.709000 1.006000 1.006000
-16.699000 0.918500 0.918500
-16.689000 0.832500 0.832500
-16.679000 0.748800 0.748800
-16.669000 0.757600 0.757600
-16.659000 0.771700 0.771700
-16.649000 0.786100 0.786100
-16.639000 0.798800 0.798800
-16.629000 0.813500 0.813500
-16.619000 0.540200 0.540200
-16.609000 0.555500 0.555500
-16.599000 0.554300 0.554300
-16.589000 0.529100 0.529100
-16.579000 0.503400 0.503400
-16.569000 0.478600 0.478600
-16.559000 0.453700 0.453700
-16.549000 0.428600 0.428600
-16.539000 0.404000 0.404000
-16.529000 0.379700 0.379700
-16.519000 0.355300 0.355300
-16.509000 0.331000 0.331000
-16.499000 0.306700 0.306700
-16.489000 0.282900 0.282900
-16.479000 0.262700 0.262700
-16.469000 0.263600 0.263600
-16.459000 0.264300 0.264300
-16.449000 0.264800 0.264800
-16.439000 0.265500 0.265500
-16.429000 0.266200 0.266200
-16.419000 0.267200 0.267200
-16.409000 0.267900 0.267900
-16.399000 0.000000 0.000000
-16.389000 0.000000 0.000000
-16.379000 0.000000 0.000000
-16.369000 0.000000 0.000000
-16.359000 0.000000 0.000000
-16.349000 0.000000 0.000000
-16.339000 0.000000 0.000000
-16.329000 0.000000 0.000000
-16.319000 0.000000 0.000000
-16.309000 0.000000 0.000000
-16.299000 0.000000 0.000000
-16.289000 0.000000 0.000000
-16.279000 0.000000 0.000000
-16.269000 0.000000 0.000000
-16.259000 0.000000 0.000000
-16.249000 0.000000 0.000000
-16.239000 0.000000 0.000000
-16.229000 0.000000 0.000000
-16.219000 0.000000 0.000000
-16.209000 0.000000 0.000000
-16.199000 0.000000 0.000000
-16.189000 0.000000 0.000000
-16.179000 0.000000 0.000000
-16.169000 0.000000 0.000000
-16.159000 0.000000 0.000000
-16.149000 0.276800 0.276800
-16.139000 0.269400 0.269400
-16.129000 0.262200 0.262200
-16.119000 0.254700 0.254700
-16.109000 0.247500 0.247500
-16.099000 0.240000 0.240000
-16.089000 0.232400 0.232400
-16.079000 0.228100 0.228100
-16.069000 0.253100 0.253100
-16.059000 0.277800 0.277800
-16.049000 0.302500 0.302500
-16.039000 0.327000 0.327000
-16.029000 0.351500 0.351500
-16.019000 0.376100 0.376100
-16.009000 0.400600 0.400600
-15.999000 0.424700 0.424700
-15.989000 0.449000 0.449000
-15.979000 0.473100 0.473100
-15.969000 0.497200 0.497200
-15.959000 0.521100 0.521100
-15.949000 1.594000 1.594000
-15.939000 0.787100 0.787100
-15.929000 0.620200 0.620200
-15.919000 0.717300 0.717300
-15.909000 0.816400 0.816400
-15.899000 1.160000 1.160000
-15.889000 1.614000 1.614000
-15.879000 2.062000 2.062000
-15.869000 1.057000 1.057000
-15.859000 1.005000 1.005000
-15.849000 0.959000 0.959000
-15.839000 0.909400 0.909400
-15.829000 0.863900 0.863900
-15.819000 0.816400 0.816400
-15.809000 0.769200 0.769200
-15.799000 0.738200 0.738200
-15.789000 0.709900 0.709900
-15.779000 0.683900 0.683900
-15.769000 0.665000 0.665000
-15.759000 0.647900 0.647900
-15.749000 0.631400 0.631400
-15.739000 0.614600 0.614600
-15.729000 0.599800 0.599800
-15.719000 0.580100 0.580100
-15.709000 0.562400 0.562400
-15.699000 0.545300 0.545300
-15.689000 0.537100 0.537100
-15.679000 0.528000 0.528000
-15.669000 0.519200 0.519200
-15.659000 0.510900 0.510900
-15.649000 0.501800 0.501800
-15.639000 0.495600 0.495600
-15.629000 0.489600 0.489600
-15.619000 0.483400 0.483400
-15.609000 0.477400 0.477400
-15.599000 0.471200 0.471200
-15.589000 0.465200 0.465200
-15.579000 0.459300 0.459300
-15.569000 0.453300 0.453300
-15.559000 0.447700 0.447700
-15.549000 0.441700 0.441700
-15.539000 0.435800 0.435800
-15.529000 0.429900 0.429900
-15.519000 0.423900 0.423900
-15.509000 0.417800 0.417800
-15.499000 0.411400 0.411400
-15.489000 0.405200 0.405200
-15.479000 0.399600 0.399600
-15.469000 0.393500 0.393500
-15.459000 0.387600 0.387600
-15.449000 0.381700 0.381700
-15.439000 0.365400 0.365400
-15.429000 0.362000 0.362000
-15.419000 0.359100 0.359100
-15.409000 0.356300 0.356300
-15.399000 0.352900 0.352900
-15.389000 0.350000 0.350000
-15.379000 0.346900 0.346900
-15.369000 0.344000 0.344000
-15.359000 0.340900 0.340900
-15.349000 0.337800 0.337800
-15.339000 0.334900 0.334900
-15.329000 0.332100 0.332100
-15.319000 0.329000 0.329000
-15.309000 0.325900 0.325900
-15.299000 0.322800 0.322800
-15.289000 0.319400 0.319400
-15.279000 0.316600 0.316600
-15.269000 0.313500 0.313500
-15.259000 0.310200 0.310200
-15.249000 0.307100 0.307100
-15.239000 0.303700 0.303700
-15.229000 0.300900 0.300900
-15.219000 0.297800 0.297800
-15.209000 0.295000 0.295000
-15.199000 0.291900 0.291900
-15.189000 0.288600 0.288600
-15.179000 0.285000 0.285000
-15.169000 0.280000 0.280000
-15.159000 0.274900 0.274900
-15.149000 0.269900 0.269900
-15.139000 0.264600 0.264600
-15.129000 0.259800 0.259800
-15.119000 0.257500 0.257500
-15.109000 0.255400 0.255400
-15.099000 0.253600 0.253600
-15.089000 0.251800 0.251800
-15.079000 0.249700 0.249700
-15.069000 0.247900 0.247900
-15.059000 0.246100 0.246100
-15.049000 0.244300 0.244300
-15.039000 0.241900 0.241900
-15.029000 0.240100 0.240100
-15.019000 0.238300 0.238300
-15.009000 0.236500 0.236500
-14.999000 0.234700 0.234700
-14.989000 0.232600 0.232600
-14.979000 0.230800 0.230800
-14.969000 0.229000 0.229000
-14.959000 0.227200 0.227200
-14.949000 0.225400 0.225400
-14.939000 0.223900 0.223900
-14.929000 0.221300 0.221300
-14.919000 0.219300 0.219300
-14.909000 0.216700 0.216700
-14.899000 0.214200 0.214200
-14.889000 0.211900 0.211900
-14.879000 0.209400 0.209400
-14.869000 0.206800 0.206800
-14.859000 0.204800 0.204800
-14.849000 0.202000 0.202000
-14.839000 0.200000 0.200000
-14.829000 0.197400 0.197400
-14.819000 0.195200 0.195200
-14.809000 0.186500 0.186500
-14.799000 0.184900 0.184900
-14.789000 0.183900 0.183900
-14.779000 0.182300 0.182300
-14.769000 0.181300 0.181300
-14.759000 0.180300 0.180300
-14.749000 0.178700 0.178700
-14.739000 0.177700 0.177700
-14.729000 0.176400 0.176400
-14.719000 0.175100 0.175100
-14.709000 0.173800 0.173800
-14.699000 0.172800 0.172800
-14.689000 0.171000 0.171000
-14.679000 0.169400 0.169400
-14.669000 0.168200 0.168200
-14.659000 0.166600 0.166600
-14.649000 0.165400 0.165400
-14.639000 0.163800 0.163800
-14.629000 0.162300 0.162300
-14.619000 0.161300 0.161300
-14.609000 0.159500 0.159500
-14.599000 0.158500 0.158500
-14.589000 0.156700 0.156700
-14.579000 0.155700 0.155700
-14.569000 0.154100 0.154100
-14.559000 0.152900 0.152900
-14.549000 0.151300 0.151300
-14.539000 0.150100 0.150100
-14.529000 0.148800 0.148800
-14.519000 0.146800 0.146800
-14.509000 0.144300 0.144300
-14.499000 0.141600 0.141600
-14.489000 0.138800 0.138800
-14.479000 0.136600 0.136600
-14.469000 0.133600 0.133600
-14.459000 0.131400 0.131400
-14.449000 0.128900 0.128900
-14.439000 0.127800 0.127800
-14.429000 0.126800 0.126800
-14.419000 0.126000 0.126000
-14.409000 0.125000 0.125000
-14.399000 0.124000 0.124000
-14.389000 0.123200 0.123200
-14.379000 0.122200 0.122200
-14.369000 0.121400 0.121400
-14.359000 0.120400 0.120400
-14.349000 0.119600 0.119600
-14.339000 0.118600 0.118600
-14.329000 0.117600 0.117600
-14.319000 0.117100 0.117100
-14.309000 0.116040 0.116040
-14.299000 0.115240 0.115240
-14.289000 0.114240 0.114240
-14.279000 0.113440 0.113440
-14.269000 0.112470 0.112470
-14.259000 0.111260 0.111260
-14.249000 0.109910 0.109910
-14.239000 0.108790 0.108790
-14.229000 0.107610 0.107610
-14.219000 0.106290 0.106290
-14.209000 0.105170 0.105170
-14.199000 0.103880 0.103880
-14.189000 0.102730 0.102730
-14.179000 0.101610 0.101610
-14.169000 0.100290 0.100290
-14.159000 0.099230 0.099230
-14.149000 0.391500 0.391500
-14.139000 0.415300 0.415300
-14.129000 0.438900 0.438900
-14.119000 0.462400 0.462400
-14.109000 0.485600 0.485600
-14.099000 0.503200 0.503200
-14.089000 0.526600 0.526600
-14.079000 0.525200 0.525200
-14.069000 0.511800 0.511800
-14.059000 0.498100 0.498100
-14.049000 0.484600 0.484600
-14.039000 0.453300 0.453300
-14.029000 0.458400 0.458400
-14.019000 0.463000 0.463000
-14.009000 0.468100 0.468100
-13.999000 0.473000 0.473000
-13.989000 0.478100 0.478100
-13.979000 0.482600 0.482600
-13.969000 0.487200 0.487200
-13.959000 0.492000 0.492000
-13.949000 0.497100 0.497100
-13.939000 0.501400 0.501400
-13.929000 0.506200 0.506200
-13.919000 0.510700 0.510700
-13.909000 0.516700 0.516700
-13.899000 0.493000 0.493000
-13.889000 0.491300 0.491300
-13.879000 0.489500 0.489500
-13.869000 0.487800 0.487800
-13.859000 0.486100 0.486100
-13.849000 0.484100 0.484100
-13.839000 0.483600 0.483600
-13.829000 0.484600 0.484600
-13.819000 0.485600 0.485600
-13.809000 0.486100 0.486100
-13.799000 0.486400 0.486400
-13.789000 0.486900 0.486900
-13.779000 0.487200 0.487200
-13.769000 0.487700 0.487700
-13.759000 0.487700 0.487700
-13.749000 0.488200 0.488200
-13.739000 0.488700 0.488700
-13.729000 0.488700 0.488700
-13.719000 0.489200 0.489200
-13.709000 0.498100 0.498100
-13.699000 0.500400 0.500400
-13.689000 0.502100 0.502100
-13.679000 0.504600 0.504600
-13.669000 0.507300 0.507300
-13.659000 0.508000 0.508000
-13.649000 0.508100 0.508100
-13.639000 0.508200 0.508200
-13.629000 0.509500 0.509500
-13.619000 0.510800 0.510800
-13.609000 0.512100 0.512100
-13.599000 0.513100 0.513100
-13.589000 0.514400 0.514400
-13.579000 0.515700 0.515700
-13.569000 0.516700 0.516700
-13.559000 0.517200 0.517200
-13.549000 0.518200 0.518200
-13.539000 0.518900 0.518900
-13.529000 0.520500 0.520500
-13.519000 0.524800 0.524800
-13.509000 0.528300 0.528300
-13.499000 0.532000 0.532000
-13.489000 0.536000 0.536000
-13.479000 0.539700 0.539700
-13.469000 0.543200 0.543200
-13.459000 0.546900 0.546900
-13.449000 0.549100 0.549100
-13.439000 0.550500 0.550500
-13.429000 0.552100 0.552100
-13.419000 0.553500 0.553500
-13.409000 0.555100 0.555100
-13.399000 0.556500 0.556500
-13.389000 0.612600 0.612600
-13.379000 0.645000 0.645000
-13.369000 0.673000 0.673000
-13.359000 0.701400 0.701400
-13.349000 0.722000 0.722000
-13.339000 0.736600 0.736600
-13.329000 0.751000 0.751000
-13.319000 0.768600 0.768600
-13.309000 0.783000 0.783000
-13.299000 0.812400 0.812400
-13.289000 0.829800 0.829800
-13.279000 0.841000 0.841000
-13.269000 0.855200 0.855200
-13.259000 0.866400 0.866400
-13.249000 0.862500 0.862500
-13.239000 0.738680 0.738680
-13.229000 0.680940 0.680940
-13.219000 0.646320 0.646320
-13.209000 0.611700 0.611700
-13.199000 0.578000 0.578000
-13.189000 0.553600 0.553600
-13.179000 0.533400 0.533400
-13.169000 0.513780 0.513780
-13.159000 0.494460 0.494460
-13.149000 0.474840 0.474840
-13.139000 0.455520 0.455520
-13.129000 0.436780 0.436780
-13.119000 0.427060 0.427060
-13.109000 0.420660 0.420660
-13.099000 0.413920 0.413920
-13.089000 0.407480 0.407480
-13.079000 0.401020 0.401020
-13.069000 0.394260 0.394260
-13.059000 0.386860 0.386860
-13.049000 0.380060 0.380060
-13.039000 0.367240 0.367240
-13.029000 0.351720 0.351720
-13.019000 0.337060 0.337060
-13.009000 0.321802 0.321802
-12.999000 0.307228 0.307228
-12.989000 0.293654 0.293654
-12.979000 0.280382 0.280382
-12.969000 0.267110 0.267110
-12.959000 0.253840 0.253840
-12.949000 0.334614 0.334614
-12.939000 0.318374 0.318374
-12.929000 0.302434 0.302434
-12.919000 0.286796 0.286796
-12.909000 0.271456 0.271456
-12.899000 0.256118 0.256118
-12.889000 0.241380 0.241380
-12.879000 0.226643 0.226643
-12.869000 0.212206 0.212206
-12.859000 0.198070 0.198070
-12.849000 0.285072 0.285072
-12.839000 0.265564 0.265564
-12.829000 0.242752 0.242752
-12.819000 0.220240 0.220240
-12.809000 0.198327 0.198327
-12.799000 0.177014 0.177014
-12.789000 0.156000 0.156000
-12.779000 0.217200 0.217200
-12.769000 0.083100 0.083100
-12.759000 0.000282 0.000282
-12.749000 0.001062 0.001062
-12.739000 0.001841 0.001841
-12.729000 0.002615 0.002615
-12.719000 0.003396 0.003396
-12.709000 0.004172 0.004172
-12.699000 0.004948 0.004948
-12.689000 0.005726 0.005726
-12.679000 0.006504 0.006504
-12.669000 0.007293 0.007293
-12.659000 0.008064 0.008064
-12.649000 0.008838 0.008838
-12.639000 0.009602 0.009602
-12.629000 0.010384 0.010384
-12.619000 0.011156 0.011156
-12.609000 0.011940 0.011940
-12.599000 0.012720 0.012720
-12.589000 0.013490 0.013490
-12.579000 0.014250 0.014250
-12.569000 0.015030 0.015030
-12.559000 0.015830 0.015830
-12.549000 0.016570 0.016570
-12.539000 0.017350 0.017350
-12.529000 0.018150 0.018150
-12.519000 0.018920 0.018920
-12.509000 0.019700 0.019700
-12.499000 0.020450 0.020450
-12.489000 0.021220 0.021220
-12.479000 0.022030 0.022030
-12.469000 0.022780 0.022780
-12.459000 0.023550 0.023550
-12.449000 0.024310 0.024310
-12.439000 0.025060 0.025060
-12.429000 0.025830 0.025830
-12.419000 0.030620 0.030620
-12.409000 0.031280 0.031280
-12.399000 0.031910 0.031910
-12.389000 0.032540 0.032540
-12.379000 0.033170 0.033170
-12.369000 0.033770 0.033770
-12.359000 0.034400 0.034400
-12.349000 0.035030 0.035030
-12.339000 0.035680 0.035680
-12.329000 0.036340 0.036340
-12.319000 0.036970 0.036970
-12.309000 0.037620 0.037620
-12.299000 0.038250 0.038250
-12.289000 0.038880 0.038880
-12.279000 0.039530 0.039530
-12.269000 0.040190 0.040190
-12.259000 0.040840 0.040840
-12.249000 0.041490 0.041490
-12.239000 0.042150 0.042150
-12.229000 0.042800 0.042800
-12.219000 0.043480 0.043480
-12.209000 0.044130 0.044130
-12.199000 0.044810 0.044810
-12.189000 0.087760 0.087760
-12.179000 0.150000 0.150000
-12.169000 0.195600 0.195600
-12.159000 0.216900 0.216900
-12.149000 0.238400 0.238400
-12.139000 0.259700 0.259700
-12.129000 0.280700 0.280700
-12.119000 0.303700 0.303700
-12.109000 0.326700 0.326700
-12.099000 0.344200 0.344200
-12.089000 0.360400 0.360400
-12.079000 0.376500 0.376500
-12.069000 0.391900 0.391900
-12.059000 0.408100 0.408100
-12.049000 0.423700 0.423700
-12.039000 0.439700 0.439700
-12.029000 0.455300 0.455300
-12.019000 0.470700 0.470700
-12.009000 0.486400 0.486400
-11.999000 0.502100 0.502100
-11.989000 0.470500 0.470500
-11.979000 0.470200 0.470200
-11.969000 0.469600 0.469600
-11.959000 0.469300 0.469300
-11.949000 0.475300 0.475300
-11.939000 0.482100 0.482100
-11.929000 0.489200 0.489200
-11.919000 0.496000 0.496000
-11.909000 0.502800 0.502800
-11.899000 0.513700 0.513700
-11.889000 0.564700 0.564700
-11.879000 0.613400 0.613400
-11.869000 0.642700 0.642700
-11.859000 0.641500 0.641500
-11.849000 0.640000 0.640000
-11.839000 0.638100 0.638100
-11.829000 0.625600 0.625600
-11.819000 0.604500 0.604500
-11.809000 0.584000 0.584000
-11.799000 0.563100 0.563100
-11.789000 0.542400 0.542400
-11.779000 0.512500 0.512500
-11.769000 0.482300 0.482300
-11.759000 0.452500 0.452500
-11.749000 0.422700 0.422700
-11.739000 0.393200 0.393200
-11.729000 0.364500 0.364500
-11.719000 0.360800 0.360800
-11.709000 0.357500 0.357500
-11.699000 0.353800 0.353800
-11.689000 0.350700 0.350700
-11.679000 0.347300 0.347300
-11.669000 0.343400 0.343400
-11.659000 0.340300 0.340300
-11.649000 0.336900 0.336900
-11.639000 0.333500 0.333500
-11.629000 0.329900 0.329900
-11.619000 0.326500 0.326500
-11.609000 0.323100 0.323100
-11.599000 0.319400 0.319400
-11.589000 0.316300 0.316300
-11.579000 0.309300 0.309300
-11.569000 0.301500 0.301500
-11.559000 0.296200 0.296200
-11.549000 0.291900 0.291900
-11.539000 0.289100 0.289100
-11.529000 0.286400 0.286400
-11.519000 0.283900 0.283900
-11.509000 0.281800 0.281800
-11.499000 0.279900 0.279900
-11.489000 0.277800 0.277800
-11.479000 0.276200 0.276200
-11.469000 0.274100 0.274100
-11.459000 0.272300 0.272300
-11.449000 0.271600 0.271600
-11.439000 0.271200 0.271200
-11.429000 0.271100 0.271100
-11.419000 0.271300 0.271300
-11.409000 0.225100 0.225100
-11.399000 0.222600 0.222600
-11.389000 0.220200 0.220200
-11.379000 0.217700 0.217700
-11.369000 0.215300 0.215300
-11.359000 0.212900 0.212900
-11.349000 0.210700 0.210700
-11.339000 0.208000 0.208000
-11.329000 0.205600 0.205600
-11.319000 0.203100 0.203100
-11.309000 0.200700 0.200700
-11.299000 0.198800 0.198800
-11.289000 0.196100 0.196100
-11.279000 0.193700 0.193700
-11.269000 0.191200 0.191200
-11.259000 0.188800 0.188800
-11.249000 0.186700 0.186700
-11.239000 0.184200 0.184200
-11.229000 0.181800 0.181800
-11.219000 0.179400 0.179400
-11.209000 0.177200 0.177200
-11.199000 0.174800 0.174800
-11.189000 0.172400 0.172400
-11.179000 0.170500 0.170500
-11.169000 0.167800 0.167800
-11.159000 0.165400 0.165400
-11.149000 0.163500 0.163500
-11.139000 0.161100 0.161100
-11.129000 0.158700 0.158700
-11.119000 0.156500 0.156500
-11.109000 0.154100 0.154100
-11.099000 0.151700 0.151700
-11.089000 0.155100 0.155100
-11.079000 0.170100 0.170100
-11.069000 0.185600 0.185600
-11.059000 0.202200 0.202200
-11.049000 0.220300 0.220300
-11.039000 0.238100 0.238100
-11.029000 0.256300 0.256300
-11.019000 0.130400 0.130400
-11.009000 0.128700 0.128700
-10.999000 0.127300 0.127300
-10.989000 0.125400 0.125400
-10.979000 0.124000 0.124000
-10.969000 0.122100 0.122100
-10.959000 0.120700 0.120700
-10.949000 0.119000 0.119000
-10.939000 0.117400 0.117400
-10.929000 0.116000 0.116000
-10.919000 0.114300 0.114300
-10.909000 0.112700 0.112700
-10.899000 0.111000 0.111000
-10.889000 0.109400 0.109400
-10.879000 0.145500 0.145500
-10.869000 0.201300 0.201300
-10.859000 0.257900 0.257900
-10.849000 0.314700 0.314700
-10.839000 0.372300 0.372300
-10.829000 0.430200 0.430200
-10.819000 0.463400 0.463400
-10.809000 0.528300 0.528300
-10.799000 0.593100 0.593100
-10.789000 0.658800 0.658800
-10.779000 0.724500 0.724500
-10.769000 0.791400 0.791400
-10.759000 0.723300 0.723300
-10.749000 0.661400 0.661400
-10.739000 0.636000 0.636000
-10.729000 1.574200 1.574200
-10.719000 0.561100 0.561100
-10.709000 0.524800 0.524800
-10.699000 0.489900 0.489900
-10.689000 0.449500 0.449500
-10.679000 0.405600 0.405600
-10.669000 0.363900 0.363900
-10.659000 0.352100 0.352100
-10.649000 0.387400 0.387400
-10.639000 0.373900 0.373900
-10.629000 0.362500 0.362500
-10.619000 0.350900 0.350900
-10.609000 0.339000 0.339000
-10.599000 0.326400 0.326400
-10.589000 0.313500 0.313500
-10.579000 0.300300 0.300300
-10.569000 0.224900 0.224900
-10.559000 0.261200 0.261200
-10.549000 0.296900 0.296900
-10.539000 0.332000 0.332000
-10.529000 0.367100 0.367100
-10.519000 0.401900 0.401900
-10.509000 0.306200 0.306200
-10.499000 0.308000 0.308000
-10.489000 0.309800 0.309800
-10.479000 0.312100 0.312100
-10.469000 0.313900 0.313900
-10.459000 0.315700 0.315700
-10.449000 0.317500 0.317500
-10.439000 0.319300 0.319300
-10.429000 0.321300 0.321300
-10.419000 0.323100 0.323100
-10.409000 0.324900 0.324900
-10.399000 0.326400 0.326400
-10.389000 0.442100 0.442100
-10.379000 0.412500 0.412500
-10.369000 0.380200 0.380200
-10.359000 0.348000 0.348000
-10.349000 0.316200 0.316200
-10.339000 0.287000 0.287000
-10.329000 0.278500 0.278500
-10.319000 0.276900 0.276900
-10.309000 0.275100 0.275100
-10.299000 0.273200 0.273200
-10.289000 0.272700 0.272700
-10.279000 0.273100 0.273100
-10.269000 0.272900 0.272900
-10.259000 0.272900 0.272900
-10.249000 0.273000 0.273000
-10.239000 0.273000 0.273000
-10.229000 0.272800 0.272800
-10.219000 0.273100 0.273100
-10.209000 0.272900 0.272900
-10.199000 0.272900 0.272900
-10.189000 0.272700 0.272700
-10.179000 0.272700 0.272700
-10.169000 0.254600 0.254600
-10.159000 0.255500 0.255500
-10.149000 0.256600 0.256600
-10.139000 0.244000 0.244000
-10.129000 0.241900 0.241900
-10.119000 0.240600 0.240600
-10.109000 0.238700 0.238700
-10.099000 0.236600 0.236600
-10.089000 0.235300 0.235300
-10.079000 0.234600 0.234600
-10.069000 0.234900 0.234900
-10.059000 0.235400 0.235400
-10.049000 0.235900 0.235900
-10.039000 0.236200 0.236200
-10.029000 0.236700 0.236700
-10.019000 0.237200 0.237200
-10.009000 0.237400 0.237400
-9.999000 0.237700 0.237700
-9.989000 0.238200 0.238200
-9.979000 0.238700 0.238700
-9.969000 0.238900 0.238900
-9.959000 0.239100 0.239100
-9.949000 0.293900 0.293900
-9.939000 0.290500 0.290500
-9.929000 0.286900 0.286900
-9.919000 0.283800 0.283800
-9.909000 0.281300 0.281300
-9.899000 0.278200 0.278200
-9.889000 0.275700 0.275700
-9.879000 0.272900 0.272900
-9.869000 0.270100 0.270100
-9.859000 0.267300 0.267300
-9.849000 0.264500 0.264500
-9.839000 0.261700 0.261700
-9.829000 0.249800 0.249800
-9.819000 0.245800 0.245800
-9.809000 0.242100 0.242100
-9.799000 0.238200 0.238200
-9.789000 0.234800 0.234800
-9.779000 0.231100 0.231100
-9.769000 0.227400 0.227400
-9.759000 0.224100 0.224100
-9.749000 0.221600 0.221600
-9.739000 0.219100 0.219100
-9.729000 0.216000 0.216000
-9.719000 0.213500 0.213500
-9.709000 0.210800 0.210800
-9.699000 0.208000 0.208000
-9.689000 0.205500 0.205500
-9.679000 0.204900 0.204900
-9.669000 0.204300 0.204300
-9.659000 0.203700 0.203700
-9.649000 0.202600 0.202600
-9.639000 0.202000 0.202000
-9.629000 0.201400 0.201400
-9.619000 0.200300 0.200300
-9.609000 0.199400 0.199400
-9.599000 0.198600 0.198600
-9.589000 0.198000 0.198000
-9.579000 0.196900 0.196900
-9.569000 0.196000 0.196000
-9.559000 0.194900 0.194900
-9.549000 0.194300 0.194300
-9.539000 0.193500 0.193500
-9.529000 0.192600 0.192600
-9.519000 0.178600 0.178600
-9.509000 0.178340 0.178340
-9.499000 0.178060 0.178060
-9.489000 0.177780 0.177780
-9.479000 0.176580 0.176580
-9.469000 0.173180 0.173180
-9.459000 0.172920 0.172920
-9.449000 0.172380 0.172380
-9.439000 0.171520 0.171520
-9.429000 0.170560 0.170560
-9.419000 0.169300 0.169300
-9.409000 0.168660 0.168660
-9.399000 0.167700 0.167700
-9.389000 0.166320 0.166320
-9.379000 0.164460 0.164460
-9.369000 0.162000 0.162000
-9.359000 0.159840 0.159840
-9.349000 0.157980 0.157980
-9.339000 0.155840 0.155840
-9.329000 0.153980 0.153980
-9.319000 0.151540 0.151540
-9.309000 0.149720 0.149720
-9.299000 0.147580 0.147580
-9.289000 0.145460 0.145460
-9.279000 0.143640 0.143640
-9.269000 0.141520 0.141520
-9.259000 0.139700 0.139700
-9.249000 0.137900 0.137900
-9.239000 0.135800 0.135800
-9.229000 0.134000 0.134000
-9.219000 0.131940 0.131940
-9.209000 0.130920 0.130920
-9.199000 0.129580 0.129580
-9.189000 0.128560 0.128560
-9.179000 0.129820 0.129820
-9.169000 0.132980 0.132980
-9.159000 0.136120 0.136120
-9.149000 0.139280 0.139280
-9.139000 0.142140 0.142140
-9.129000 0.145600 0.145600
-9.119000 0.148780 0.148780
-9.109000 0.152880 0.152880
-9.099000 0.156980 0.156980
-9.089000 0.161300 0.161300
-9.079000 0.165100 0.165100
-9.069000 0.168600 0.168600
-9.059000 0.174400 0.174400
-9.049000 0.160300 0.160300
-9.039000 0.157900 0.157900
-9.029000 0.155400 0.155400
-9.019000 0.153000 0.153000
-9.009000 0.150800 0.150800
-8.999000 0.148240 0.148240
-8.989000 0.146300 0.146300
-8.979000 0.144360 0.144360
-8.969000 0.142440 0.142440
-8.959000 0.174380 0.174380
-8.949000 0.172220 0.172220
-8.939000 0.170380 0.170380
-8.929000 0.168240 0.168240
-8.919000 0.166420 0.166420
-8.909000 0.164300 0.164300
-8.899000 0.162500 0.162500
-8.889000 0.161020 0.161020
-8.879000 0.159260 0.159260
-8.869000 0.158720 0.158720
-8.859000 0.159300 0.159300
-8.849000 0.160160 0.160160
-8.839000 0.160720 0.160720
-8.829000 0.160980 0.160980
-8.819000 0.161540 0.161540
-8.809000 0.162100 0.162100
-8.799000 0.162880 0.162880
-8.789000 0.172500 0.172500
-8.779000 0.174700 0.174700
-8.769000 0.176900 0.176900
-8.759000 0.178800 0.178800
-8.749000 0.180700 0.180700
-8.739000 0.182300 0.182300
-8.729000 0.184200 0.184200
-8.719000 0.186600 0.186600
-8.709000 0.186800 0.186800
-8.699000 0.186900 0.186900
-8.689000 0.187300 0.187300
-8.679000 0.187100 0.187100
-8.669000 0.186100 0.186100
-8.659000 0.184400 0.184400
-8.649000 0.182500 0.182500
-8.639000 0.187300 0.187300
-8.629000 0.185900 0.185900
-8.619000 0.184800 0.184800
-8.609000 0.183600 0.183600
-8.599000 0.181900 0.181900
-8.589000 0.180800 0.180800
-8.579000 0.167000 0.167000
-8.569000 0.166500 0.166500
-8.559000 0.165200 0.165200
-8.549000 0.187300 0.187300
-8.539000 0.194700 0.194700
-8.529000 0.201800 0.201800
-8.519000 0.209200 0.209200
-8.509000 0.215600 0.215600
-8.499000 0.205200 0.205200
-8.489000 0.210600 0.210600
-8.479000 0.224700 0.224700
-8.469000 0.241700 0.241700
-8.459000 0.261600 0.261600
-8.449000 0.283900 0.283900
-8.439000 0.308900 0.308900
-8.429000 0.239400 0.239400
-8.419000 0.183300 0.183300
-8.409000 0.135800 0.135800
-8.399000 0.111720 0.111720
-8.389000 0.095510 0.095510
-8.379000 0.092620 0.092620
-8.369000 0.092210 0.092210
-8.359000 0.091740 0.091740
-8.349000 0.091110 0.091110
-8.339000 0.090550 0.090550
-8.329000 0.089630 0.089630
-8.319000 0.088950 0.088950
-8.309000 0.088650 0.088650
-8.299000 0.088270 0.088270
-8.289000 0.088390 0.088390
-8.279000 0.090630 0.090630
-8.269000 0.091310 0.091310
-8.259000 0.092020 0.092020
-8.249000 0.112340 0.112340
-8.239000 0.119900 0.119900
-8.229000 0.126900 0.126900
-8.219000 0.133400 0.133400
-8.209000 0.139400 0.139400
-8.199000 0.145400 0.145400
-8.189000 0.205200 0.205200
-8.179000 0.213200 0.213200
-8.169000 0.204000 0.204000
-8.159000 0.193800 0.193800
-8.149000 0.179900 0.179900
-8.139000 0.164500 0.164500
-8.129000 0.164200 0.164200
-8.119000 0.164200 0.164200
-8.109000 0.167900 0.167900
-8.099000 0.175200 0.175200
-8.089000 0.182700 0.182700
-8.079000 0.185300 0.185300
-8.069000 0.185300 0.185300
-8.059000 0.183400 0.183400
-8.049000 0.183500 0.183500
-8.039000 0.183400 0.183400
-8.029000 0.183800 0.183800
-8.019000 0.184000 0.184000
-8.009000 0.158100 0.158100
-7.999000 0.149500 0.149500
-7.989000 0.141400 0.141400
-7.979000 0.132700 0.132700
-7.969000 0.124300 0.124300
-7.959000 0.116600 0.116600
-7.949000 0.111600 0.111600
-7.939000 0.107080 0.107080
-7.929000 0.102900 0.102900
-7.919000 0.098740 0.098740
-7.909000 0.094700 0.094700
-7.899000 0.107480 0.107480
-7.889000 0.108880 0.108880
-7.879000 0.109120 0.109120
-7.869000 0.109420 0.109420
-7.859000 0.101620 0.101620
-7.849000 0.092040 0.092040
-7.839000 0.082680 0.082680
-7.829000 0.073880 0.073880
-7.819000 0.061630 0.061630
-7.809000 0.039950 0.039950
-7.799000 0.025392 0.025392
-7.789000 0.025454 0.025454
-7.779000 0.025608 0.025608
-7.769000 0.026072 0.026072
-7.759000 0.026512 0.026512
-7.749000 0.026866 0.026866
-7.739000 0.027222 0.027222
-7.729000 0.027554 0.027554
-7.719000 0.027738 0.027738
-7.709000 0.027828 0.027828
-7.699000 0.027892 0.027892
-7.689000 0.027988 0.027988
-7.679000 0.028024 0.028024
-7.669000 0.028064 0.028064
-7.659000 0.028074 0.028074
-7.649000 0.028086 0.028086
-7.639000 0.028130 0.028130
-7.629000 0.028116 0.028116
-7.619000 0.028102 0.028102
-7.609000 0.028062 0.028062
-7.599000 0.028052 0.028052
-7.589000 0.028014 0.028014
-7.579000 0.027978 0.027978
-7.569000 0.027914 0.027914
-7.559000 0.027820 0.027820
-7.549000 0.027730 0.027730
-7.539000 0.027610 0.027610
-7.529000 0.027524 0.027524
-7.519000 0.027408 0.027408
-7.509000 0.027296 0.027296
-7.499000 0.027154 0.027154
-7.489000 0.027010 0.027010
-7.479000 0.026880 0.026880
-7.469000 0.026720 0.026720
-7.459000 0.026540 0.026540
-7.449000 0.030340 0.030340
-7.439000 0.031230 0.031230
-7.429000 0.032040 0.032040
-7.419000 0.032860 0.032860
-7.409000 0.033640 0.033640
-7.399000 0.034350 0.034350
-7.389000 0.035100 0.035100
-7.379000 0.035750 0.035750
-7.369000 0.036220 0.036220
-7.359000 0.036640 0.036640
-7.349000 0.037070 0.037070
-7.339000 0.037430 0.037430
-7.329000 0.037800 0.037800
-7.319000 0.038160 0.038160
-7.309000 0.038470 0.038470
-7.299000 0.038790 0.038790
-7.289000 0.039100 0.039100
-7.279000 0.039390 0.039390
-7.269000 0.039640 0.039640
-7.259000 0.040030 0.040030
-7.249000 0.062690 0.062690
-7.239000 0.098280 0.098280
-7.229000 0.132100 0.132100
-7.219000 0.161300 0.161300
-7.209000 0.192400 0.192400
-7.199000 0.194000 0.194000
-7.189000 0.210400 0.210400
-7.179000 0.251400 0.251400
-7.169000 0.274800 0.274800
-7.159000 0.299000 0.299000
-7.149000 0.324600 0.324600
-7.139000 0.330000 0.330000
-7.129000 0.357000 0.357000
-7.119000 0.332100 0.332100
-7.109000 0.285110 0.285110
-7.099000 0.292470 0.292470
-7.089000 0.303000 0.303000
-7.079000 0.313600 0.313600
-7.069000 0.323380 0.323380
-7.059000 0.440040 0.440040
-7.049000 0.205330 0.205330
-7.039000 0.192970 0.192970
-7.029000 0.180300 0.180300
-7.019000 0.167290 0.167290
-7.009000 0.154570 0.154570
-6.999000 0.141440 0.141440
-6.989000 0.128400 0.128400
-6.979000 0.132750 0.132750
-6.969000 0.141670 0.141670
-6.959000 0.150270 0.150270
-6.949000 0.158550 0.158550
-6.939000 0.088120 0.088120
-6.929000 0.084870 0.084870
-6.919000 0.081920 0.081920
-6.909000 0.078900 0.078900
-6.899000 0.075950 0.075950
-6.889000 0.072730 0.072730
-6.879000 0.069795 0.069795
-6.869000 0.066733 0.066733
-6.859000 0.063654 0.063654
-6.849000 0.060578 0.060578
-6.839000 0.057672 0.057672
-6.829000 0.054599 0.054599
-6.819000 0.051526 0.051526
-6.809000 0.048656 0.048656
-6.799000 0.045586 0.045586
-6.789000 0.042519 0.042519
-6.779000 0.039655 0.039655
-6.769000 0.038620 0.038620
-6.759000 0.039972 0.039972
-6.749000 0.041196 0.041196
-6.739000 0.042405 0.042405
-6.729000 0.043659 0.043659
-6.719000 0.044865 0.044865
-6.709000 0.046113 0.046113
-6.699000 0.047146 0.047146
-6.689000 0.000000 0.000000
-6.679000 0.000000 0.000000
-6.669000 0.000000 0.000000
-6.659000 0.000000 0.000000
-6.649000 0.000000 0.000000
-6.639000 0.000000 0.000000
-6.629000 0.000000 0.000000
-6.619000 0.000000 0.000000
-6.609000 0.000000 0.000000
-6.599000 0.000000 0.000000
-6.589000 0.000000 0.000000
-6.579000 0.000000 0.000000
-6.569000 0.000000 0.000000
-6.559000 0.000000 0.000000
-6.549000 0.000000 0.000000
-6.539000 0.000000 0.000000
-6.529000 0.000000 0.000000
-6.519000 0.000000 0.000000
-6.509000 0.000000 0.000000
-6.499000 0.000000 0.000000
-6.489000 0.000000 0.000000
-6.479000 0.000000 0.000000
-6.469000 0.000000 0.000000
-6.459000 0.000000 0.000000
-6.449000 0.000000 0.000000
-6.439000 0.000000 0.000000
-6.429000 0.000000 0.000000
-6.419000 0.000000 0.000000
-6.409000 0.000000 0.000000
-6.399000 0.008166 0.008166
-6.389000 0.103890 0.103890
-6.379000 0.100240 0.100240
-6.369000 0.096780 0.096780
-6.359000 0.093340 0.093340
-6.349000 0.090050 0.090050
-6.339000 0.096400 0.096400
-6.329000 0.217300 0.217300
-6.319000 0.130100 0.130100
-6.309000 0.144100 0.144100
-6.299000 0.157500 0.157500
-6.289000 0.170900 0.170900
-6.279000 0.184500 0.184500
-6.269000 0.197900 0.197900
-6.259000 0.211500 0.211500
-6.249000 0.225300 0.225300
-6.239000 0.146000 0.146000
-6.229000 0.141400 0.141400
-6.219000 0.136500 0.136500
-6.209000 0.131700 0.131700
-6.199000 0.126600 0.126600
-6.189000 0.122000 0.122000
-6.179000 0.117700 0.117700
-6.169000 0.113580 0.113580
-6.159000 0.109460 0.109460
-6.149000 0.105400 0.105400
-6.139000 0.097610 0.097610
-6.129000 0.095660 0.095660
-6.119000 0.093480 0.093480
-6.109000 0.092500 0.092500
-6.099000 0.091680 0.091680
-6.089000 0.090760 0.090760
-6.079000 0.089870 0.089870
-6.069000 0.088980 0.088980
-6.059000 0.088190 0.088190
-6.049000 0.087300 0.087300
-6.039000 0.086410 0.086410
-6.029000 0.085350 0.085350
-6.019000 0.084490 0.084490
-6.009000 0.083730 0.083730
-5.999000 0.082870 0.082870
-5.989000 0.082040 0.082040
-5.979000 0.081010 0.081010
-5.969000 0.080180 0.080180
-5.959000 0.079150 0.079150
-5.949000 0.078380 0.078380
-5.939000 0.077940 0.077940
-5.929000 0.077200 0.077200
-5.919000 0.076260 0.076260
-5.909000 0.075550 0.075550
-5.899000 0.074610 0.074610
-5.889000 0.073900 0.073900
-5.879000 0.072900 0.072900
-5.869000 0.071870 0.071870
-5.859000 0.070870 0.070870
-5.849000 0.069840 0.069840
-5.839000 0.068870 0.068870
-5.829000 0.067870 0.067870
-5.819000 0.066840 0.066840
-5.809000 0.065870 0.065870
-5.799000 0.065340 0.065340
-5.789000 0.065130 0.065130
-5.779000 0.064860 0.064860
-5.769000 0.064420 0.064420
-5.759000 0.064210 0.064210
-5.749000 0.063770 0.063770
-5.739000 0.063530 0.063530
-5.729000 0.063120 0.063120
-5.719000 0.062880 0.062880
-5.709000 0.062470 0.062470
-5.699000 0.062260 0.062260
-5.689000 0.061820 0.061820
-5.679000 0.061580 0.061580
-5.669000 0.061140 0.061140
-5.659000 0.060930 0.060930
-5.649000 0.060490 0.060490
-5.639000 0.060250 0.060250
-5.629000 0.059810 0.059810
-5.619000 0.059600 0.059600
-5.609000 0.059160 0.059160
-5.599000 0.058780 0.058780
-5.589000 0.058540 0.058540
-5.579000 0.058130 0.058130
-5.569000 0.057920 0.057920
-5.559000 0.057510 0.057510
-5.549000 0.068990 0.068990
-5.539000 0.099820 0.099820
-5.529000 0.130480 0.130480
-5.519000 0.160800 0.160800
-5.509000 0.190300 0.190300
-5.499000 0.220300 0.220300
-5.489000 0.249800 0.249800
-5.479000 0.278700 0.278700
-5.469000 0.304500 0.304500
-5.459000 0.333100 0.333100
-5.449000 0.268100 0.268100
-5.439000 0.237900 0.237900
-5.429000 0.241100 0.241100
-5.419000 0.244000 0.244000
-5.409000 0.247500 0.247500
-5.399000 0.250200 0.250200
-5.389000 0.253100 0.253100
-5.379000 0.256000 0.256000
-5.369000 0.258700 0.258700
-5.359000 0.261600 0.261600
-5.349000 0.264500 0.264500
-5.339000 0.267200 0.267200
-5.329000 0.269600 0.269600
-5.319000 0.272500 0.272500
-5.309000 0.274900 0.274900
-5.299000 0.277600 0.277600
-5.289000 0.279700 0.279700
-5.279000 0.281200 0.281200
-5.269000 0.288200 0.288200
-5.259000 0.296600 0.296600
-5.249000 0.304100 0.304100
-5.239000 0.312000 0.312000
-5.229000 0.318100 0.318100
-5.219000 0.321100 0.321100
-5.209000 0.324100 0.324100
-5.199000 0.327100 0.327100
-5.189000 0.329600 0.329600
-5.179000 0.332300 0.332300
-5.169000 0.334800 0.334800
-5.159000 0.337300 0.337300
-5.149000 0.339300 0.339300
-5.139000 0.340900 0.340900
-5.129000 0.342000 0.342000
-5.119000 0.343400 0.343400
-5.109000 0.345000 0.345000
-5.099000 0.366600 0.366600
-5.089000 0.412800 0.412800
-5.079000 0.457400 0.457400
-5.069000 0.500400 0.500400
-5.059000 0.542300 0.542300
-5.049000 0.590100 0.590100
-5.039000 0.731000 0.731000
-5.029000 0.689900 0.689900
-5.019000 0.647200 0.647200
-5.009000 0.607900 0.607900
-4.999000 0.568700 0.568700
-4.989000 0.532000 0.532000
-4.979000 0.496700 0.496700
-4.969000 0.465400 0.465400
-4.959000 0.451800 0.451800
-4.949000 0.438500 0.438500
-4.939000 0.425500 0.425500
-4.929000 0.412500 0.412500
-4.919000 0.399500 0.399500
-4.909000 0.368800 0.368800
-4.899000 0.324600 0.324600
-4.889000 0.290600 0.290600
-4.879000 0.284500 0.284500
-4.869000 0.278200 0.278200
-4.859000 0.308100 0.308100
-4.849000 0.294000 0.294000
-4.839000 0.280200 0.280200
-4.829000 0.266700 0.266700
-4.819000 0.253700 0.253700
-4.809000 0.241600 0.241600
-4.799000 0.230300 0.230300
-4.789000 0.219000 0.219000
-4.779000 0.208600 0.208600
-4.769000 0.198500 0.198500
-4.759000 0.188900 0.188900
-4.749000 0.147300 0.147300
-4.739000 0.146200 0.146200
-4.729000 0.145300 0.145300
-4.719000 0.228600 0.228600
-4.709000 0.263500 0.263500
-4.699000 0.297600 0.297600
-4.689000 0.370400 0.370400
-4.679000 0.405200 0.405200
-4.669000 0.440000 0.440000
-4.659000 0.417800 0.417800
-4.649000 0.438600 0.438600
-4.639000 0.447000 0.447000
-4.629000 0.459200 0.459200
-4.619000 0.471700 0.471700
-4.609000 0.520000 0.520000
-4.599000 0.600400 0.600400
-4.589000 0.685200 0.685200
-4.579000 0.772000 0.772000
-4.569000 1.074600 1.074600
-4.559000 0.941800 0.941800
-4.549000 1.188200 1.188200
-4.539000 0.752400 0.752400
-4.529000 0.616800 0.616800
-4.519000 0.502400 0.502400
-4.509000 0.472900 0.472900
-4.499000 0.451600 0.451600
-4.489000 0.429900 0.429900
-4.479000 0.408300 0.408300
-4.469000 0.386800 0.386800
-4.459000 0.364400 0.364400
-4.449000 0.350000 0.350000
-4.439000 0.343200 0.343200
-4.429000 0.336700 0.336700
-4.419000 0.330300 0.330300
-4.409000 0.323600 0.323600
-4.399000 0.317200 0.317200
-4.389000 0.310800 0.310800
-4.379000 0.303900 0.303900
-4.369000 0.297600 0.297600
-4.359000 0.280200 0.280200
-4.349000 0.275900 0.275900
-4.339000 0.271800 0.271800
-4.329000 0.267200 0.267200
-4.319000 0.263700 0.263700
-4.309000 0.261900 0.261900
-4.299000 0.259600 0.259600
-4.289000 0.257800 0.257800
-4.279000 0.255700 0.255700
-4.269000 0.253600 0.253600
-4.259000 0.249600 0.249600
-4.249000 0.247000 0.247000
-4.239000 0.244400 0.244400
-4.229000 0.241900 0.241900
-4.219000 0.239300 0.239300
-4.209000 0.237000 0.237000
-4.199000 0.234400 0.234400
-4.189000 0.231900 0.231900
-4.179000 0.229300 0.229300
-4.169000 0.226500 0.226500
-4.159000 0.224200 0.224200
-4.149000 0.222200 0.222200
-4.139000 0.219400 0.219400
-4.129000 0.216900 0.216900
-4.119000 0.214300 0.214300
-4.109000 0.211800 0.211800
-4.099000 0.209300 0.209300
-4.089000 0.207000 0.207000
-4.079000 0.204500 0.204500
-4.069000 0.202300 0.202300
-4.059000 0.200000 0.200000
-4.049000 0.197800 0.197800
-4.039000 0.196900 0.196900
-4.029000 0.195400 0.195400
-4.019000 0.194500 0.194500
-4.009000 0.190200 0.190200
-3.999000 0.189600 0.189600
-3.989000 0.188700 0.188700
-3.979000 0.187800 0.187800
-3.969000 0.186900 0.186900
-3.959000 0.187200 0.187200
-3.949000 0.186600 0.186600
-3.939000 0.185500 0.185500
-3.929000 0.184600 0.184600
-3.919000 0.184000 0.184000
-3.909000 0.183100 0.183100
-3.899000 0.182300 0.182300
-3.889000 0.181700 0.181700
-3.879000 0.180800 0.180800
-3.869000 0.180000 0.180000
-3.859000 0.179100 0.179100
-3.849000 0.178200 0.178200
-3.839000 0.177100 0.177100
-3.829000 0.176500 0.176500
-3.819000 0.175400 0.175400
-3.809000 0.174800 0.174800
-3.799000 0.173700 0.173700
-3.789000 0.173100 0.173100
-3.779000 0.172000 0.172000
-3.769000 0.171400 0.171400
-3.759000 0.170600 0.170600
-3.749000 0.169500 0.169500
-3.739000 0.168600 0.168600
-3.729000 0.163800 0.163800
-3.719000 0.163200 0.163200
-3.709000 0.162600 0.162600
-3.699000 0.162000 0.162000
-3.689000 0.161500 0.161500
-3.679000 0.160900 0.160900
-3.669000 0.160300 0.160300
-3.659000 0.160000 0.160000
-3.649000 0.159500 0.159500
-3.639000 0.158900 0.158900
-3.629000 0.158600 0.158600
-3.619000 0.158600 0.158600
-3.609000 0.156100 0.156100
-3.599000 0.155800 0.155800
-3.589000 0.155500 0.155500
-3.579000 0.155200 0.155200
-3.569000 0.154400 0.154400
-3.559000 0.154100 0.154100
-3.549000 0.154100 0.154100
-3.539000 0.153800 0.153800
-3.529000 0.153200 0.153200
-3.519000 0.152900 0.152900
-3.509000 0.152400 0.152400
-3.499000 0.152100 0.152100
-3.489000 0.151470 0.151470
-3.479000 0.151200 0.151200
-3.469000 0.150630 0.150630
-3.459000 0.150160 0.150160
-3.449000 0.149590 0.149590
-3.439000 0.149380 0.149380
-3.429000 0.148580 0.148580
-3.419000 0.148280 0.148280
-3.409000 0.147450 0.147450
-3.399000 0.153750 0.153750
-3.389000 0.155000 0.155000
-3.379000 0.155920 0.155920
-3.369000 0.157140 0.157140
-3.359000 0.157860 0.157860
-3.349000 0.159080 0.159080
-3.339000 0.160000 0.160000
-3.329000 0.160690 0.160690
-3.319000 0.160750 0.160750
-3.309000 0.160580 0.160580
-3.299000 0.160940 0.160940
-3.289000 0.161390 0.161390
-3.279000 0.161840 0.161840
-3.269000 0.162460 0.162460
-3.259000 0.162910 0.162910
-3.249000 0.163660 0.163660
-3.239000 0.164110 0.164110
-3.229000 0.164560 0.164560
-3.219000 0.166390 0.166390
-3.209000 0.166840 0.166840
-3.199000 0.167320 0.167320
-3.189000 0.167540 0.167540
-3.179000 0.167660 0.167660
-3.169000 0.167580 0.167580
-3.159000 0.168000 0.168000
-3.149000 0.162090 0.162090
-3.139000 0.154890 0.154890
-3.129000 0.147690 0.147690
-3.119000 0.142510 0.142510
-3.109000 0.140110 0.140110
-3.099000 0.137910 0.137910
-3.089000 0.135410 0.135410
-3.079000 0.133010 0.133010
-3.069000 0.130810 0.130810
-3.059000 0.128310 0.128310
-3.049000 0.126080 0.126080
-3.039000 0.123580 0.123580
-3.029000 0.121380 0.121380
-3.019000 0.119510 0.119510
-3.009000 0.117970 0.117970
-2.999000 0.116660 0.116660
-2.989000 0.115320 0.115320
-2.979000 0.113450 0.113450
-2.969000 0.112110 0.112110
-2.959000 0.110740 0.110740
-2.949000 0.108900 0.108900
-2.939000 0.107560 0.107560
-2.929000 0.105890 0.105890
-2.919000 0.104550 0.104550
-2.909000 0.100820 0.100820
-2.899000 0.099480 0.099480
-2.889000 0.097840 0.097840
-2.879000 0.096480 0.096480
-2.869000 0.095140 0.095140
-2.859000 0.093520 0.093520
-2.849000 0.092600 0.092600
-2.839000 0.092010 0.092010
-2.829000 0.091090 0.091090
-2.819000 0.090220 0.090220
-2.809000 0.089600 0.089600
-2.799000 0.088710 0.088710
-2.789000 0.087840 0.087840
-2.779000 0.087220 0.087220
-2.769000 0.086330 0.086330
-2.759000 0.085430 0.085430
-2.749000 0.084860 0.084860
-2.739000 0.083970 0.083970
-2.729000 0.083070 0.083070
-2.719000 0.082100 0.082100
-2.709000 0.080880 0.080880
-2.699000 0.079910 0.079910
-2.689000 0.078660 0.078660
-2.679000 0.077740 0.077740
-2.669000 0.076490 0.076490
-2.659000 0.075540 0.075540
-2.649000 0.074640 0.074640
-2.639000 0.073390 0.073390
-2.629000 0.072510 0.072510
-2.619000 0.071940 0.071940
-2.609000 0.071040 0.071040
-2.599000 0.070100 0.070100
-2.589000 0.069130 0.069130
-2.579000 0.068190 0.068190
-2.569000 0.067250 0.067250
-2.559000 0.066310 0.066310
-2.549000 0.065390 0.065390
-2.539000 0.065100 0.065100
-2.529000 0.063760 0.063760
-2.519000 0.062720 0.062720
-2.509000 0.061680 0.061680
-2.499000 0.060660 0.060660
-2.489000 0.059620 0.059620
-2.479000 0.058620 0.058620
-2.469000 0.057600 0.057600
-2.459000 0.056630 0.056630
-2.449000 0.055650 0.055650
-2.439000 0.054740 0.054740
-2.429000 0.055000 0.055000
-2.419000 0.054060 0.054060
-2.409000 0.052820 0.052820
-2.399000 0.053770 0.053770
-2.389000 0.053180 0.053180
-2.379000 0.052290 0.052290
-2.369000 0.051670 0.051670
-2.359000 0.050800 0.050800
-2.349000 0.049900 0.049900
-2.339000 0.048980 0.048980
-2.329000 0.048080 0.048080
-2.319000 0.047180 0.047180
-2.309000 0.046300 0.046300
-2.299000 0.045400 0.045400
-2.289000 0.044550 0.044550
-2.279000 0.043730 0.043730
-2.269000 0.042940 0.042940
-2.259000 0.042150 0.042150
-2.249000 0.041380 0.041380
-2.239000 0.040610 0.040610
-2.229000 0.039880 0.039880
-2.219000 0.039160 0.039160
-2.209000 0.038480 0.038480
-2.199000 0.037740 0.037740
-2.189000 0.037080 0.037080
-2.179000 0.036450 0.036450
-2.169000 0.035790 0.035790
-2.159000 0.035190 0.035190
-2.149000 0.034580 0.034580
-2.139000 0.034000 0.034000
-2.129000 0.032508 0.032508
-2.119000 0.031962 0.031962
-2.109000 0.031416 0.031416
-2.099000 0.030863 0.030863
-2.089000 0.030290 0.030290
-2.079000 0.040330 0.040330
-2.069000 0.051650 0.051650
-2.059000 0.060370 0.060370
-2.049000 0.065860 0.065860
-2.039000 0.072310 0.072310
-2.029000 0.075640 0.075640
-2.019000 0.078770 0.078770
-2.009000 0.081870 0.081870
-1.999000 0.085140 0.085140
-1.989000 0.088510 0.088510
-1.979000 0.090110 0.090110
-1.969000 0.091810 0.091810
-1.959000 0.093680 0.093680
-1.949000 0.095350 0.095350
-1.939000 0.097020 0.097020
-1.929000 0.098890 0.098890
-1.919000 0.100530 0.100530
-1.909000 0.102170 0.102170
-1.899000 0.103810 0.103810
-1.889000 0.105750 0.105750
-1.879000 0.107160 0.107160
-1.869000 0.108510 0.108510
-1.859000 0.109660 0.109660
-1.849000 0.110780 0.110780
-1.839000 0.111930 0.111930
-1.829000 0.113050 0.113050
-1.819000 0.114170 0.114170
-1.809000 0.115090 0.115090
-1.799000 0.116210 0.116210
-1.789000 0.110280 0.110280
-1.779000 0.109390 0.109390
-1.769000 0.117040 0.117040
-1.759000 0.113960 0.113960
-1.749000 0.110910 0.110910
-1.739000 0.108780 0.108780
-1.729000 0.107600 0.107600
-1.719000 0.106420 0.106420
-1.709000 0.105770 0.105770
-1.699000 0.104920 0.104920
-1.689000 0.104370 0.104370
-1.679000 0.104380 0.104380
-1.669000 0.104490 0.104490
-1.659000 0.104800 0.104800
-1.649000 0.105740 0.105740
-1.639000 0.106940 0.106940
-1.629000 0.108440 0.108440
-1.619000 0.109610 0.109610
-1.609000 0.111110 0.111110
-1.599000 0.112510 0.112510
-1.589000 0.114180 0.114180
-1.579000 0.116080 0.116080
-1.569000 0.118510 0.118510
-1.559000 0.121170 0.121170
-1.549000 0.123570 0.123570
-1.539000 0.126500 0.126500
-1.529000 0.129130 0.129130
-1.519000 0.132260 0.132260
-1.509000 0.135390 0.135390
-1.499000 0.138190 0.138190
-1.489000 0.141320 0.141320
-1.479000 0.144620 0.144620
-1.469000 0.147720 0.147720
-1.459000 0.151320 0.151320
-1.449000 0.208990 0.208990
-1.439000 0.204870 0.204870
-1.429000 0.200920 0.200920
-1.419000 0.196800 0.196800
-1.409000 0.192880 0.192880
-1.399000 0.188930 0.188930
-1.389000 0.184810 0.184810
-1.379000 0.181090 0.181090
-1.369000 0.177170 0.177170
-1.359000 0.173250 0.173250
-1.349000 0.169630 0.169630
-1.339000 0.165910 0.165910
-1.329000 0.161990 0.161990
-1.319000 0.158070 0.158070
-1.309000 0.154150 0.154150
-1.299000 0.150430 0.150430
-1.289000 0.198530 0.198530
-1.279000 0.321010 0.321010
-1.269000 0.116020 0.116020
-1.259000 0.114730 0.114730
-1.249000 0.113440 0.113440
-1.239000 0.111850 0.111850
-1.229000 0.110330 0.110330
-1.219000 0.109040 0.109040
-1.209000 0.107750 0.107750
-1.199000 0.106160 0.106160
-1.189000 0.104870 0.104870
-1.179000 0.103580 0.103580
-1.169000 0.103220 0.103220
-1.159000 0.104060 0.104060
-1.149000 0.104600 0.104600
-1.139000 0.105470 0.105470
-1.129000 0.106210 0.106210
-1.119000 0.106450 0.106450
-1.109000 0.106990 0.106990
-1.099000 0.107730 0.107730
-1.089000 0.107970 0.107970
-1.079000 0.108710 0.108710
-1.069000 0.109710 0.109710
-1.059000 0.110740 0.110740
-1.049000 0.111740 0.111740
-1.039000 0.112440 0.112440
-1.029000 0.113440 0.113440
-1.019000 0.124730 0.124730
-1.009000 0.194710 0.194710
-0.999000 0.264870 0.264870
-0.989000 0.110420 0.110420
-0.979000 0.110730 0.110730
-0.969000 0.111070 0.111070
-0.959000 0.111080 0.111080
-0.949000 0.111220 0.111220
-0.939000 0.111230 0.111230
-0.929000 0.111270 0.111270
-0.919000 0.124130 0.124130
-0.909000 0.122240 0.122240
-0.899000 0.120650 0.120650
-0.889000 0.119030 0.119030
-0.879000 0.117440 0.117440
-0.869000 0.115850 0.115850
-0.859000 0.114260 0.114260
-0.849000 0.112640 0.112640
-0.839000 0.111150 0.111150
-0.829000 0.109560 0.109560
-0.819000 0.107770 0.107770
-0.809000 0.106280 0.106280
-0.799000 0.104660 0.104660
-0.789000 0.099970 0.099970
-0.779000 0.098510 0.098510
-0.769000 0.097150 0.097150
-0.759000 0.097390 0.097390
-0.749000 0.097630 0.097630
-0.739000 0.097900 0.097900
-0.729000 0.098140 0.098140
-0.719000 0.098410 0.098410
-0.709000 0.098350 0.098350
-0.699000 0.098620 0.098620
-0.689000 0.098860 0.098860
-0.679000 0.101730 0.101730
-0.669000 0.108350 0.108350
-0.659000 0.117100 0.117100
-0.649000 0.124730 0.124730
-0.639000 0.132680 0.132680
-0.629000 0.142140 0.142140
-0.619000 0.151100 0.151100
-0.609000 0.108760 0.108760
-0.599000 0.108430 0.108430
-0.589000 0.108600 0.108600
-0.579000 0.108270 0.108270
-0.569000 0.108440 0.108440
-0.559000 0.108110 0.108110
-0.549000 0.107980 0.107980
-0.539000 0.107850 0.107850
-0.529000 0.108510 0.108510
-0.519000 0.121790 0.121790
-0.509000 0.134630 0.134630
-0.499000 0.147200 0.147200
-0.489000 0.270220 0.270220
-0.479000 0.232840 0.232840
-0.469000 0.133440 0.133440
-0.459000 0.134710 0.134710
-0.449000 0.135650 0.135650
-0.439000 0.136720 0.136720
-0.429000 0.137690 0.137690
-0.419000 0.137770 0.137770
-0.409000 0.137550 0.137550
-0.399000 0.137660 0.137660
-0.389000 0.138070 0.138070
-0.379000 0.138680 0.138680
-0.369000 0.138790 0.138790
-0.359000 0.139230 0.139230
-0.349000 0.139270 0.139270
-0.339000 0.139610 0.139610
-0.329000 0.139090 0.139090
-0.319000 0.138570 0.138570
-0.309000 0.138050 0.138050
-0.299000 0.137530 0.137530
-0.289000 0.137010 0.137010
-0.279000 0.136220 0.136220
-0.269000 0.137110 0.137110
-0.259000 0.138820 0.138820
-0.249000 0.140730 0.140730
-0.239000 0.142470 0.142470
-0.229000 0.143910 0.143910
-0.219000 0.145650 0.145650
-0.209000 0.184120 0.184120
-0.199000 0.182270 0.182270
-0.189000 0.179460 0.179460
-0.179000 0.175260 0.175260
-0.169000 0.148370 0.148370
-0.159000 0.149130 0.149130
-0.149000 0.144150 0.144150
-0.139000 0.142370 0.142370
-0.129000 0.140820 0.140820
-0.119000 0.139470 0.139470
-0.109000 0.137920 0.137920
-0.099000 0.136370 0.136370
-0.089000 0.135050 0.135050
-0.079000 0.133500 0.133500
-0.069000 0.132180 0.132180
-0.059000 0.130830 0.130830
-0.049000 0.129310 0.129310
-0.039000 0.128490 0.128490
-0.029000 0.127530 0.127530
-0.019000 0.127040 0.127040
-0.009000 0.126280 0.126280
0.001000 0.125820 0.125820
0.011000 0.125760 0.125760
0.021000 0.125830 0.125830
0.031000 0.125600 0.125600
0.041000 0.125640 0.125640
0.051000 0.125710 0.125710
0.061000 0.125980 0.125980
0.071000 0.125720 0.125720
0.081000 0.126520 0.126520
0.091000 0.127620 0.127620
0.101000 0.129250 0.129250
0.111000 0.128990 0.128990
0.121000 0.153000 0.153000
0.131000 0.149890 0.149890
0.141000 0.146950 0.146950
0.151000 0.133400 0.133400
0.161000 0.131020 0.131020
0.171000 0.128670 0.128670
0.181000 0.125860 0.125860
0.191000 0.123150 0.123150
0.201000 0.123450 0.123450
0.211000 0.124040 0.124040
0.221000 0.124700 0.124700
0.231000 0.125290 0.125290
0.241000 0.126680 0.126680
0.251000 0.127570 0.127570
0.261000 0.128660 0.128660
0.271000 0.129580 0.129580
0.281000 0.131000 0.131000
0.291000 0.132220 0.132220
0.301000 0.133640 0.133640
0.311000 0.134860 0.134860
0.321000 0.136280 0.136280
0.331000 0.138530 0.138530
0.341000 0.140480 0.140480
0.351000 0.184430 0.184430
0.361000 0.217490 0.217490
0.371000 0.249600 0.249600
0.381000 0.192890 0.192890
0.391000 0.196290 0.196290
0.401000 0.193740 0.193740
0.411000 0.188940 0.188940
0.421000 0.184370 0.184370
0.431000 0.179600 0.179600
0.441000 0.175060 0.175060
0.451000 0.170820 0.170820
0.461000 0.166840 0.166840
0.471000 0.162660 0.162660
0.481000 0.160330 0.160330
0.491000 0.159420 0.159420
0.501000 0.158210 0.158210
0.511000 0.157070 0.157070
0.521000 0.156130 0.156130
0.531000 0.155520 0.155520
0.541000 0.157270 0.157270
0.551000 0.158790 0.158790
0.561000 0.168190 0.168190
0.571000 0.180460 0.180460
0.581000 0.173500 0.173500
0.591000 0.166800 0.166800
0.601000 0.160130 0.160130
0.611000 0.153520 0.153520
0.621000 0.150130 0.150130
0.631000 0.152270 0.152270
0.641000 0.154290 0.154290
0.651000 0.211150 0.211150
0.661000 0.156030 0.156030
0.671000 0.111690 0.111690
0.681000 0.068120 0.068120
0.691000 0.060520 0.060520
0.701000 0.060650 0.060650
0.711000 0.061050 0.061050
0.721000 0.061160 0.061160
0.731000 0.061590 0.061590
0.741000 0.061990 0.061990
0.751000 0.062120 0.062120
0.761000 0.062220 0.062220
0.771000 0.062650 0.062650
0.781000 0.062770 0.062770
0.791000 0.063200 0.063200
0.801000 0.063300 0.063300
0.811000 0.063430 0.063430
0.821000 0.063830 0.063830
0.831000 0.063950 0.063950
0.841000 0.064080 0.064080
0.851000 0.064480 0.064480
0.861000 0.064630 0.064630
0.871000 0.064730 0.064730
0.881000 0.065150 0.065150
0.891000 0.065280 0.065280
0.901000 0.065400 0.065400
0.911000 0.066200 0.066200
0.921000 0.066670 0.066670
0.931000 0.067120 0.067120
0.941000 0.067290 0.067290
0.951000 0.067740 0.067740
0.961000 0.068210 0.068210
0.971000 0.068360 0.068360
0.981000 0.068810 0.068810
0.991000 0.068980 0.068980
1.001000 0.069400 0.069400
1.011000 0.069850 0.069850
1.021000 0.070020 0.070020
1.031000 0.070470 0.070470
1.041000 0.070620 0.070620
1.051000 0.071040 0.071040
1.061000 0.071190 0.071190
1.071000 0.071270 0.071270
1.081000 0.071370 0.071370
1.091000 0.071470 0.071470
1.101000 0.071570 0.071570
1.111000 0.071670 0.071670
1.121000 0.071750 0.071750
1.131000 0.071930 0.071930
1.141000 0.072450 0.072450
1.151000 0.072590 0.072590
1.161000 0.072690 0.072690
1.171000 0.072790 0.072790
1.181000 0.072890 0.072890
1.191000 0.072960 0.072960
1.201000 0.073060 0.073060
1.211000 0.073140 0.073140
1.221000 0.073240 0.073240
1.231000 0.073340 0.073340
1.241000 0.073420 0.073420
1.251000 0.073520 0.073520
1.261000 0.075970 0.075970
1.271000 0.076120 0.076120
1.281000 0.076540 0.076540
1.291000 0.076990 0.076990
1.301000 0.077440 0.077440
1.311000 0.077870 0.077870
1.321000 0.078320 0.078320
1.331000 0.078750 0.078750
1.341000 0.079180 0.079180
1.351000 0.079630 0.079630
1.361000 0.079730 0.079730
1.371000 0.080180 0.080180
1.381000 0.080610 0.080610
1.391000 0.080730 0.080730
1.401000 0.081160 0.081160
1.411000 0.081630 0.081630
1.421000 0.082100 0.082100
1.431000 0.082570 0.082570
1.441000 0.083040 0.083040
1.451000 0.083510 0.083510
1.461000 0.083960 0.083960
1.471000 0.084110 0.084110
1.481000 0.084530 0.084530
1.491000 0.084980 0.084980
1.501000 0.084760 0.084760
1.511000 0.084820 0.084820
1.521000 0.084860 0.084860
1.531000 0.084940 0.084940
1.541000 0.085420 0.085420
1.551000 0.085550 0.085550
1.561000 0.085980 0.085980
1.571000 0.086390 0.086390
1.581000 0.086500 0.086500
1.591000 0.086570 0.086570
1.601000 0.086930 0.086930
1.611000 0.087160 0.087160
1.621000 0.087490 0.087490
1.631000 0.087520 0.087520
1.641000 0.087520 0.087520
1.651000 0.087220 0.087220
1.661000 0.087550 0.087550
1.671000 0.088540 0.088540
1.681000 0.089200 0.089200
1.691000 0.089860 0.089860
1.701000 0.090220 0.090220
1.711000 0.090580 0.090580
1.721000 0.090910 0.090910
1.731000 0.091270 0.091270
1.741000 0.091400 0.091400
1.751000 0.092590 0.092590
1.761000 0.093940 0.093940
1.771000 0.095160 0.095160
1.781000 0.098510 0.098510
1.791000 0.099260 0.099260
1.801000 0.099980 0.099980
1.811000 0.100400 0.100400
1.821000 0.100980 0.100980
1.831000 0.102030 0.102030
1.841000 0.107610 0.107610
1.851000 0.109800 0.109800
1.861000 0.117300 0.117300
1.871000 0.123870 0.123870
1.881000 0.128510 0.128510
1.891000 0.227140 0.227140
1.901000 0.120540 0.120540
1.911000 0.209930 0.209930
1.921000 0.089890 0.089890
1.931000 0.078360 0.078360
1.941000 0.075200 0.075200
1.951000 0.071980 0.071980
1.961000 0.068800 0.068800
1.971000 0.065300 0.065300
1.981000 0.061810 0.061810
1.991000 0.058030 0.058030
2.001000 0.054230 0.054230
2.011000 0.063340 0.063340
2.021000 0.076830 0.076830
2.031000 0.093220 0.093220
2.041000 0.031886 0.031886
2.051000 0.031917 0.031917
2.061000 0.031968 0.031968
2.071000 0.031969 0.031969
2.081000 0.032000 0.032000
2.091000 0.032031 0.032031
2.101000 0.032062 0.032062
2.111000 0.032113 0.032113
2.121000 0.032144 0.032144
2.131000 0.032175 0.032175
2.141000 0.032203 0.032203
2.151000 0.032234 0.032234
2.161000 0.032265 0.032265
2.171000 0.032296 0.032296
2.181000 0.032327 0.032327
2.191000 0.032358 0.032358
2.201000 0.032389 0.032389
2.211000 0.032440 0.032440
2.221000 0.032471 0.032471
2.231000 0.032502 0.032502
2.241000 0.032563 0.032563
2.251000 0.032594 0.032594
2.261000 0.032625 0.032625
2.271000 0.032656 0.032656
2.281000 0.032717 0.032717
2.291000 0.032728 0.032728
2.301000 0.032759 0.032759
2.311000 0.032820 0.032820
2.321000 0.032851 0.032851
2.331000 0.036358 0.036358
2.341000 0.040106 0.040106
2.351000 0.043729 0.043729
2.361000 0.044652 0.044652
2.371000 0.045620 0.045620
2.381000 0.046540 0.046540
2.391000 0.047490 0.047490
2.401000 0.048440 0.048440
2.411000 0.049390 0.049390
2.421000 0.050390 0.050390
2.431000 0.051340 0.051340
2.441000 0.052340 0.052340
2.451000 0.053370 0.053370
2.461000 0.054340 0.054340
2.471000 0.055460 0.055460
2.481000 0.056400 0.056400
2.491000 0.057310 0.057310
2.501000 0.058520 0.058520
2.511000 0.059480 0.059480
2.521000 0.060430 0.060430
2.531000 0.061590 0.061590
2.541000 0.062620 0.062620
2.551000 0.063780 0.063780
2.561000 0.064810 0.064810
2.571000 0.065970 0.065970
2.581000 0.066800 0.066800
2.591000 0.067860 0.067860
2.601000 0.068690 0.068690
2.611000 0.069520 0.069520
2.621000 0.070380 0.070380
2.631000 0.071410 0.071410
2.641000 0.072540 0.072540
2.651000 0.073400 0.073400
2.661000 0.074230 0.074230
2.671000 0.075060 0.075060
2.681000 0.076120 0.076120
2.691000 0.077250 0.077250
2.701000 0.078080 0.078080
2.711000 0.078910 0.078910
2.721000 0.079740 0.079740
2.731000 0.135410 0.135410
2.741000 0.143300 0.143300
2.751000 0.151100 0.151100
2.761000 0.158900 0.158900
2.771000 0.166900 0.166900
2.781000 0.175500 0.175500
2.791000 0.183300 0.183300
2.801000 0.191600 0.191600
2.811000 0.200100 0.200100
2.821000 0.208700 0.208700
2.831000 0.217200 0.217200
2.841000 0.225500 0.225500
2.851000 0.234300 0.234300
2.861000 0.243100 0.243100
2.871000 0.251900 0.251900
2.881000 0.260200 0.260200
2.891000 0.267700 0.267700
2.901000 1.000700 1.000700
2.911000 1.977000 1.977000
2.921000 1.689000 1.689000
2.931000 2.041000 2.041000
2.941000 3.494000 3.494000
2.951000 0.969500 0.969500
2.961000 0.772400 0.772400
2.971000 0.576600 0.576600
2.981000 0.365400 0.365400
2.991000 0.328500 0.328500
3.001000 0.294500 0.294500
3.011000 0.263100 0.263100
3.021000 0.249800 0.249800
3.031000 0.241500 0.241500
3.041000 0.233400 0.233400
3.051000 0.225600 0.225600
3.061000 0.217290 0.217290
3.071000 0.209400 0.209400
3.081000 0.201240 0.201240
3.091000 0.193410 0.193410
3.101000 0.185340 0.185340
3.111000 0.177500 0.177500
3.121000 0.169720 0.169720
3.131000 0.161740 0.161740
3.141000 0.154220 0.154220
3.151000 0.146530 0.146530
3.161000 0.138900 0.138900
3.171000 0.137350 0.137350
3.181000 0.137570 0.137570
3.191000 0.137530 0.137530
3.201000 0.137130 0.137130
3.211000 0.136500 0.136500
3.221000 0.135810 0.135810
3.231000 0.134920 0.134920
3.241000 0.133440 0.133440
3.251000 0.132230 0.132230
3.261000 0.130490 0.130490
3.271000 0.128520 0.128520
3.281000 0.126160 0.126160
3.291000 0.100100 0.100100
3.301000 0.093820 0.093820
3.311000 0.087770 0.087770
3.321000 0.081550 0.081550
3.331000 0.075590 0.075590
3.341000 0.069660 0.069660
3.351000 0.063970 0.063970
3.361000 0.058270 0.058270
3.371000 0.052352 0.052352
3.381000 0.046836 0.046836
3.391000 0.041092 0.041092
3.401000 0.035553 0.035553
3.411000 0.030083 0.030083
3.421000 0.024695 0.024695
3.431000 0.019369 0.019369
3.441000 0.014075 0.014075
3.451000 0.008902 0.008902
3.461000 0.003775 0.003775
3.471000 0.000000 0.000000
